spectra (nm),reflection
339.97,1.46875
340.35,1.46875
340.72,1.46875
341.1,1.7541
341.47,1.02597
341.85,2.4
342.23,-9.95
342.6,1.66667
342.98,1.12903
343.35,0.16667
343.73,1.51572
344.11,11.28571
344.48,0.73408
344.86,0.86598
345.23,1.34351
345.61,-3.30303
345.98,0.52041
346.36,1.35922
346.73,0.98214
347.11,0.9557
347.49,0.84163
347.86,0.90728
348.24,0.67308
348.61,1.20796
348.99,-3
349.36,-0.00162
349.74,-0.31276
350.11,0.02677
350.49,0.11177
350.86,0.22682
351.24,0.0102
351.61,-0.08581
351.99,-0.07156
352.36,0.16532
352.74,0.09692
353.11,-0.14377
353.49,-0.1105
353.86,-0.02384
354.24,-0.00342
354.61,0.01907
354.99,0.0736
355.36,0.09456
355.74,-0.14035
356.11,0.09857
356.49,-0.01101
356.86,-0.04107
357.24,-0.14228
357.61,-0.0562
357.99,-0.03075
358.36,-0.16015
358.74,-0.06965
359.11,-0.01744
359.48,-0.18413
359.86,-0.01537
360.23,-0.02868
360.61,-0.09038
360.98,0.10771
361.36,0.00719
361.73,0.05845
362.1,0.1024
362.48,-0.10745
362.85,0.01
363.23,0.09745
363.6,0.0159
363.97,0.03045
364.35,-0.04836
364.72,0.07173
365.1,-0.01695
365.47,-0.00093
365.84,-0.0725
366.22,-0.03424
366.59,0.04319
366.96,-0.00171
367.34,0.0448
367.71,0.0522
368.09,0.05381
368.46,-0.01257
368.83,0.02995
369.21,0.05346
369.58,0.06324
369.95,0.12395
370.33,-0.04646
370.7,0.02719
371.07,-0.01053
371.45,-0.04214
371.82,0.02723
372.19,-0.06687
372.57,-0.03566
372.94,0.03805
373.31,0.07052
373.69,0.047
374.06,-0.03548
374.43,0.03512
374.8,0.08542
375.18,-0.00151
375.55,0.05471
375.92,0.04012
376.3,0.06784
376.67,0.04545
377.04,0.09468
377.41,0.06521
377.79,0.03945
378.16,0.09278
378.53,0.10951
378.91,0.03325
379.28,0.04413
379.65,0.02926
380.02,0.06875
380.4,0.05466
380.77,0.0442
381.14,0.04597
381.51,0.04272
381.88,0.03487
382.26,0.0445
382.63,0.01147
383,0.01549
383.37,0.01444
383.75,0.0543
384.12,0.09421
384.49,-0.00972
384.86,0.10233
385.23,0.11215
385.61,0.07469
385.98,0.05749
386.35,0.06172
386.72,0.05697
387.09,0.05416
387.46,0.04751
387.84,0.07125
388.21,0.09757
388.58,0.02062
388.95,0.0184
389.32,0.07907
389.69,0.02525
390.07,0.10039
390.44,0.0414
390.81,0.09649
391.18,0.09161
391.55,0.05654
391.92,0.06156
392.29,0.06937
392.67,0.0651
393.04,0.04141
393.41,0.03149
393.78,-0.01452
394.15,0.05025
394.52,0.0764
394.89,0.08102
395.26,0.06726
395.63,0.09594
396.01,0.05103
396.38,0.05516
396.75,0.03869
397.12,0.00877
397.49,0.04207
397.86,0.05848
398.23,0.05856
398.6,0.08269
398.97,0.11667
399.34,0.07194
399.71,0.06206
400.08,0.07163
400.45,0.07754
400.83,0.07442
401.2,0.09129
401.57,0.07337
401.94,0.07173
402.31,0.07444
402.68,0.05531
403.05,0.06985
403.42,0.07349
403.79,0.08119
404.16,0.07736
404.53,0.0826
404.9,0.06788
405.27,0.08394
405.64,0.07201
406.01,0.07918
406.38,0.08368
406.75,0.08558
407.12,0.09142
407.49,0.10516
407.86,0.07319
408.23,0.07538
408.6,0.06733
408.97,0.06563
409.34,0.07104
409.71,0.06532
410.08,0.08404
410.45,0.08265
410.81,0.05739
411.18,0.07617
411.55,0.05859
411.92,0.06965
412.29,0.08013
412.66,0.05938
413.03,0.07548
413.4,0.08335
413.77,0.07043
414.14,0.08734
414.51,0.07823
414.88,0.0664
415.25,0.05309
415.62,0.06778
415.98,0.06891
416.35,0.07927
416.72,0.07298
417.09,0.0669
417.46,0.07767
417.83,0.07659
418.2,0.08138
418.57,0.07242
418.94,0.09465
419.3,0.07971
419.67,0.08488
420.04,0.06719
420.41,0.07826
420.78,0.07462
421.15,0.09481
421.52,0.07479
421.88,0.08189
422.25,0.08197
422.62,0.07103
422.99,0.08961
423.36,0.0762
423.73,0.06804
424.09,0.07015
424.46,0.08071
424.83,0.06704
425.2,0.0642
425.57,0.06779
425.93,0.07226
426.3,0.07344
426.67,0.06322
427.04,0.06424
427.41,0.08123
427.77,0.08037
428.14,0.07869
428.51,0.07855
428.88,0.07009
429.24,0.0647
429.61,0.06696
429.98,0.0756
430.35,0.08366
430.72,0.06602
431.08,0.08352
431.45,0.06184
431.82,0.08178
432.18,0.08693
432.55,0.08983
432.92,0.07507
433.29,0.08025
433.65,0.07301
434.02,0.07456
434.39,0.07405
434.76,0.06934
435.12,0.07172
435.49,0.07314
435.86,0.06534
436.22,0.07669
436.59,0.07005
436.96,0.06773
437.32,0.08174
437.69,0.08068
438.06,0.07967
438.43,0.06986
438.79,0.08527
439.16,0.08483
439.53,0.07724
439.89,0.08606
440.26,0.0797
440.63,0.08216
440.99,0.0799
441.36,0.07882
441.72,0.07983
442.09,0.07709
442.46,0.08453
442.82,0.08025
443.19,0.08342
443.56,0.08011
443.92,0.07763
444.29,0.08136
444.66,0.07926
445.02,0.08006
445.39,0.08089
445.75,0.08565
446.12,0.0762
446.49,0.08233
446.85,0.08399
447.22,0.08181
447.58,0.08915
447.95,0.08807
448.31,0.08391
448.68,0.08473
449.05,0.08704
449.41,0.08284
449.78,0.08459
450.14,0.09014
450.51,0.08959
450.87,0.09544
451.24,0.08902
451.61,0.09167
451.97,0.0935
452.34,0.09439
452.7,0.09198
453.07,0.08931
453.43,0.09569
453.8,0.09419
454.16,0.0879
454.53,0.09433
454.89,0.09288
455.26,0.09571
455.62,0.09833
455.99,0.09454
456.35,0.09826
456.72,0.09899
457.08,0.09707
457.45,0.0972
457.81,0.10219
458.18,0.09695
458.54,0.10126
458.91,0.09147
459.27,0.09759
459.64,0.10061
460,0.09891
460.36,0.10289
460.73,0.09837
461.09,0.09784
461.46,0.09988
461.82,0.1008
462.19,0.09742
462.55,0.10388
462.92,0.10331
463.28,0.10045
463.64,0.09703
464.01,0.10157
464.37,0.10332
464.74,0.10522
465.1,0.10169
465.46,0.10798
465.83,0.10162
466.19,0.10301
466.56,0.10203
466.92,0.09877
467.28,0.09725
467.65,0.09581
468.01,0.10465
468.38,0.10102
468.74,0.10292
469.1,0.1011
469.47,0.10363
469.83,0.09876
470.19,0.10136
470.56,0.10031
470.92,0.10422
471.28,0.10431
471.65,0.1033
472.01,0.10114
472.37,0.10134
472.74,0.10367
473.1,0.09923
473.46,0.10582
473.83,0.10549
474.19,0.10229
474.55,0.10234
474.92,0.10175
475.28,0.10521
475.64,0.1001
476.01,0.10254
476.37,0.10449
476.73,0.10079
477.09,0.10076
477.46,0.10615
477.82,0.09846
478.18,0.10069
478.54,0.10042
478.91,0.10084
479.27,0.10375
479.63,0.1049
480,0.10368
480.36,0.10351
480.72,0.10316
481.08,0.10335
481.45,0.1041
481.81,0.10393
482.17,0.10294
482.53,0.10323
482.89,0.10049
483.26,0.10228
483.62,0.10174
483.98,0.10122
484.34,0.10162
484.7,0.1008
485.07,0.10287
485.43,0.10317
485.79,0.10305
486.15,0.10304
486.51,0.1013
486.88,0.09883
487.24,0.10096
487.6,0.09951
487.96,0.09899
488.32,0.10126
488.68,0.1003
489.05,0.09829
489.41,0.09616
489.77,0.09402
490.13,0.09717
490.49,0.09586
490.85,0.09656
491.21,0.09914
491.58,0.09854
491.94,0.09816
492.3,0.09677
492.66,0.09699
493.02,0.09781
493.38,0.09773
493.74,0.09703
494.1,0.09681
494.47,0.0968
494.83,0.09634
495.19,0.09913
495.55,0.09599
495.91,0.09615
496.27,0.09788
496.63,0.09788
496.99,0.09858
497.35,0.09935
497.71,0.09852
498.07,0.09636
498.43,0.10077
498.79,0.10053
499.15,0.0994
499.52,0.0976
499.88,0.10034
500.24,0.10156
500.6,0.09819
500.96,0.09986
501.32,0.101
501.68,0.1015
502.04,0.10299
502.4,0.10152
502.76,0.10136
503.12,0.10228
503.48,0.0994
503.84,0.1007
504.2,0.10201
504.56,0.10355
504.92,0.10426
505.28,0.10443
505.64,0.10531
506,0.10419
506.36,0.10854
506.72,0.10809
507.08,0.10645
507.44,0.10771
507.8,0.107
508.15,0.10931
508.51,0.10713
508.87,0.10678
509.23,0.10907
509.59,0.10969
509.95,0.11131
510.31,0.11211
510.67,0.1125
511.03,0.11306
511.39,0.11292
511.75,0.11154
512.11,0.11231
512.47,0.11487
512.83,0.11344
513.18,0.11472
513.54,0.11358
513.9,0.11728
514.26,0.11576
514.62,0.11541
514.98,0.1148
515.34,0.11705
515.7,0.11587
516.05,0.11713
516.41,0.11695
516.77,0.11821
517.13,0.11619
517.49,0.1145
517.85,0.11332
518.21,0.11657
518.56,0.11505
518.92,0.11518
519.28,0.1166
519.64,0.11502
520,0.11238
520.36,0.11406
520.71,0.11634
521.07,0.11671
521.43,0.11454
521.79,0.11239
522.15,0.11318
522.5,0.11384
522.86,0.11435
523.22,0.11154
523.58,0.11405
523.94,0.11011
524.29,0.11227
524.65,0.1137
525.01,0.11539
525.37,0.11262
525.72,0.11311
526.08,0.11389
526.44,0.1133
526.8,0.11322
527.15,0.11254
527.51,0.11048
527.87,0.1133
528.23,0.11443
528.58,0.11225
528.94,0.11063
529.3,0.11286
529.66,0.11049
530.01,0.10914
530.37,0.10973
530.73,0.10896
531.08,0.10995
531.44,0.11015
531.8,0.10999
532.15,0.11073
532.51,0.11098
532.87,0.10771
533.23,0.10841
533.58,0.11105
533.94,0.10884
534.3,0.11074
534.65,0.10866
535.01,0.10891
535.37,0.10986
535.72,0.11031
536.08,0.11018
536.43,0.11015
536.79,0.10894
537.15,0.10686
537.5,0.11034
537.86,0.10952
538.22,0.1081
538.57,0.10729
538.93,0.10783
539.29,0.10618
539.64,0.1075
540,0.10778
540.35,0.10555
540.71,0.10652
541.07,0.10579
541.42,0.10776
541.78,0.10574
542.13,0.10671
542.49,0.10792
542.84,0.10727
543.2,0.10712
543.56,0.10507
543.91,0.10535
544.27,0.1085
544.62,0.10821
544.98,0.1066
545.33,0.10526
545.69,0.10711
546.04,0.10378
546.4,0.10594
546.75,0.1073
547.11,0.10805
547.47,0.10846
547.82,0.1075
548.18,0.10719
548.53,0.10573
548.89,0.10591
549.24,0.10676
549.6,0.10758
549.95,0.10761
550.31,0.10681
550.66,0.10983
551.02,0.10705
551.37,0.10884
551.72,0.10739
552.08,0.10762
552.43,0.10788
552.79,0.1049
553.14,0.1084
553.5,0.10918
553.85,0.10568
554.21,0.10783
554.56,0.10696
554.92,0.10821
555.27,0.10925
555.62,0.10845
555.98,0.10729
556.33,0.10838
556.69,0.10903
557.04,0.11067
557.4,0.10769
557.75,0.10959
558.1,0.1087
558.46,0.10611
558.81,0.10706
559.17,0.10501
559.52,0.10895
559.87,0.10715
560.23,0.10748
560.58,0.10682
560.93,0.10706
561.29,0.10681
561.64,0.10654
561.99,0.10544
562.35,0.10558
562.7,0.10343
563.06,0.10541
563.41,0.10479
563.76,0.10558
564.12,0.10408
564.47,0.10693
564.82,0.10586
565.18,0.10755
565.53,0.10789
565.88,0.10763
566.23,0.10612
566.59,0.10511
566.94,0.10349
567.29,0.10535
567.65,0.10609
568,0.10713
568.35,0.1058
568.71,0.10428
569.06,0.10433
569.41,0.10554
569.76,0.10411
570.12,0.10571
570.47,0.10692
570.82,0.10636
571.17,0.10507
571.53,0.10589
571.88,0.10408
572.23,0.10798
572.58,0.10758
572.94,0.10828
573.29,0.10847
573.64,0.10725
573.99,0.10921
574.34,0.11095
574.7,0.11429
575.05,0.11131
575.4,0.1119
575.75,0.11606
576.11,0.11406
576.46,0.12043
576.81,0.11511
577.16,0.11779
577.51,0.11953
577.86,0.11987
578.22,0.11948
578.57,0.12032
578.92,0.1215
579.27,0.1228
579.62,0.1246
579.97,0.12195
580.33,0.12583
580.68,0.12972
581.03,0.12829
581.38,0.13478
581.73,0.13158
582.08,0.13089
582.43,0.13147
582.78,0.13283
583.14,0.13552
583.49,0.1354
583.84,0.13548
584.19,0.13661
584.54,0.13781
584.89,0.13637
585.24,0.13846
585.59,0.14201
585.94,0.13936
586.29,0.14636
586.65,0.14082
587,0.14
587.35,0.14128
587.7,0.14344
588.05,0.14393
588.4,0.14597
588.75,0.1423
589.1,0.1428
589.45,0.14797
589.8,0.14401
590.15,0.14868
590.5,0.14024
590.85,0.1443
591.2,0.14683
591.55,0.14786
591.9,0.14617
592.25,0.15156
592.6,0.1516
592.95,0.15057
593.3,0.15141
593.65,0.14972
594,0.15275
594.35,0.15054
594.7,0.14859
595.05,0.15427
595.4,0.15711
595.75,0.15594
596.1,0.15547
596.45,0.15605
596.8,0.15283
597.15,0.15694
597.5,0.15614
597.85,0.15982
598.2,0.15678
598.55,0.16264
598.9,0.15969
599.24,0.15638
599.59,0.16212
599.94,0.15965
600.29,0.15957
600.64,0.16158
600.99,0.16002
601.34,0.16143
601.69,0.16202
602.04,0.16095
602.39,0.16404
602.73,0.16315
603.08,0.16308
603.43,0.16033
603.78,0.16054
604.13,0.16059
604.48,0.16139
604.83,0.16113
605.18,0.16371
605.52,0.1639
605.87,0.16246
606.22,0.16022
606.57,0.15957
606.92,0.16142
607.27,0.16092
607.61,0.15942
607.96,0.15874
608.31,0.16443
608.66,0.16192
609.01,0.16066
609.36,0.15784
609.7,0.15987
610.05,0.15884
610.4,0.15959
610.75,0.15951
611.1,0.15828
611.44,0.15898
611.79,0.1573
612.14,0.1541
612.49,0.157
612.83,0.15408
613.18,0.15685
613.53,0.15775
613.88,0.15166
614.22,0.1539
614.57,0.15207
614.92,0.15017
615.27,0.15414
615.61,0.15735
615.96,0.15029
616.31,0.15236
616.66,0.15341
617,0.15465
617.35,0.15381
617.7,0.15328
618.04,0.14987
618.39,0.1504
618.74,0.15301
619.08,0.15223
619.43,0.15136
619.78,0.14953
620.12,0.15001
620.47,0.14776
620.82,0.15186
621.16,0.15235
621.51,0.14887
621.86,0.14843
622.2,0.15042
622.55,0.15103
622.9,0.14835
623.24,0.14498
623.59,0.14841
623.94,0.14656
624.28,0.14955
624.63,0.14701
624.98,0.14861
625.32,0.14971
625.67,0.14752
626.01,0.14979
626.36,0.14982
626.71,0.14296
627.05,0.14638
627.4,0.14577
627.74,0.14585
628.09,0.14723
628.43,0.14345
628.78,0.14489
629.13,0.14489
629.47,0.1481
629.82,0.14739
630.16,0.146
630.51,0.15158
630.85,0.15181
631.2,0.14575
631.54,0.14666
631.89,0.14684
632.24,0.14135
632.58,0.15107
632.93,0.15093
633.27,0.14626
633.62,0.14993
633.96,0.1491
634.31,0.14932
634.65,0.15036
635,0.15446
635.34,0.15337
635.69,0.14904
636.03,0.152
636.38,0.15215
636.72,0.14873
637.07,0.15302
637.41,0.15618
637.75,0.15184
638.1,0.15146
638.44,0.15486
638.79,0.15151
639.13,0.15944
639.48,0.1537
639.82,0.15734
640.17,0.15824
640.51,0.15935
640.85,0.15608
641.2,0.16114
641.54,0.16048
641.89,0.15681
642.23,0.15694
642.57,0.15823
642.92,0.15515
643.26,0.15693
643.61,0.15749
643.95,0.15572
644.29,0.15543
644.64,0.15748
644.98,0.15593
645.33,0.15831
645.67,0.1583
646.01,0.15823
646.36,0.15045
646.7,0.1529
647.04,0.15402
647.39,0.15541
647.73,0.1511
648.07,0.15296
648.42,0.15749
648.76,0.15701
649.1,0.15119
649.45,0.15108
649.79,0.15561
650.13,0.15581
650.48,0.14903
650.82,0.1535
651.16,0.15381
651.5,0.14931
651.85,0.14979
652.19,0.14793
652.53,0.1522
652.88,0.14683
653.22,0.15119
653.56,0.15236
653.9,0.15121
654.25,0.1468
654.59,0.14715
654.93,0.1479
655.27,0.14833
655.62,0.14612
655.96,0.14318
656.3,0.1408
656.64,0.14097
656.99,0.14395
657.33,0.14383
657.67,0.14435
658.01,0.13997
658.35,0.13452
658.7,0.1379
659.04,0.1379
659.38,0.1348
659.72,0.13851
660.06,0.13194
660.41,0.13538
660.75,0.13228
661.09,0.12992
661.43,0.12527
661.77,0.12774
662.11,0.12862
662.46,0.12566
662.8,0.12488
663.14,0.12567
663.48,0.12687
663.82,0.12116
664.16,0.1229
664.5,0.12315
664.85,0.12547
665.19,0.12048
665.53,0.12385
665.87,0.12031
666.21,0.11702
666.55,0.1175
666.89,0.11545
667.23,0.11328
667.57,0.11672
667.92,0.1168
668.26,0.11364
668.6,0.11938
668.94,0.11457
669.28,0.11536
669.62,0.11173
669.96,0.11299
670.3,0.11452
670.64,0.11284
670.98,0.10955
671.32,0.11335
671.66,0.11257
672,0.1139
672.34,0.11256
672.68,0.11548
673.02,0.11204
673.36,0.11295
673.7,0.10819
674.04,0.10806
674.38,0.1115
674.72,0.10831
675.06,0.11087
675.4,0.10689
675.74,0.1118
676.08,0.10978
676.42,0.10587
676.76,0.11301
677.1,0.10993
677.44,0.10548
677.78,0.10977
678.12,0.11255
678.46,0.11154
678.8,0.11245
679.14,0.11019
679.48,0.11283
679.82,0.10999
680.16,0.11427
680.5,0.10981
680.84,0.1127
681.18,0.11366
681.51,0.11101
681.85,0.10909
682.19,0.10741
682.53,0.11067
682.87,0.10855
683.21,0.11471
683.55,0.11055
683.89,0.11018
684.23,0.11525
684.56,0.11618
684.9,0.11734
685.24,0.11369
685.58,0.11611
685.92,0.11828
686.26,0.11582
686.6,0.11752
686.93,0.1224
687.27,0.11605
687.61,0.11825
687.95,0.11932
688.29,0.11571
688.63,0.12149
688.96,0.12652
689.3,0.12285
689.64,0.11517
689.98,0.13048
690.32,0.12386
690.65,0.12012
690.99,0.12785
691.33,0.13174
691.67,0.13601
692.01,0.13484
692.34,0.13553
692.68,0.1317
693.02,0.13559
693.36,0.14124
693.69,0.13411
694.03,0.13625
694.37,0.14308
694.71,0.14748
695.04,0.14786
695.38,0.14766
695.72,0.16394
696.06,0.15363
696.39,0.15927
696.73,0.16215
697.07,0.16979
697.4,0.17336
697.74,0.17038
698.08,0.18083
698.42,0.18664
698.75,0.18515
699.09,0.19143
699.43,0.19419
699.76,0.19129
700.1,0.20035
700.44,0.21108
700.77,0.20374
701.11,0.22238
701.45,0.21183
701.78,0.22383
702.12,0.22977
702.45,0.23348
702.79,0.23454
703.13,0.23983
703.46,0.24699
703.8,0.24936
704.14,0.26256
704.47,0.25575
704.81,0.26628
705.14,0.2711
705.48,0.27325
705.82,0.28289
706.15,0.28993
706.49,0.29072
706.82,0.29737
707.16,0.29988
707.5,0.29727
707.83,0.30735
708.17,0.30349
708.5,0.31719
708.84,0.32237
709.17,0.32536
709.51,0.3405
709.84,0.33629
710.18,0.33483
710.52,0.33505
710.85,0.34308
711.19,0.35779
711.52,0.35937
711.86,0.36439
712.19,0.36753
712.53,0.36996
712.86,0.37831
713.2,0.38129
713.53,0.38251
713.87,0.38586
714.2,0.38439
714.54,0.38919
714.87,0.39908
715.21,0.39561
715.54,0.39675
715.88,0.39625
716.21,0.38462
716.54,0.40154
716.88,0.39124
717.21,0.38752
717.55,0.38646
717.88,0.40964
718.22,0.41368
718.55,0.3906
718.88,0.39297
719.22,0.39797
719.55,0.40874
719.89,0.4047
720.22,0.4033
720.56,0.43733
720.89,0.42971
721.22,0.42377
721.56,0.44213
721.89,0.44279
722.22,0.45448
722.56,0.45021
722.89,0.47331
723.23,0.42989
723.56,0.44079
723.89,0.43829
724.23,0.45287
724.56,0.44281
724.89,0.44636
725.23,0.45397
725.56,0.46587
725.89,0.4545
726.23,0.46013
726.56,0.44593
726.89,0.45823
727.23,0.45364
727.56,0.45508
727.89,0.46232
728.23,0.4679
728.56,0.48036
728.89,0.48611
729.22,0.46379
729.56,0.4757
729.89,0.47881
730.22,0.47867
730.55,0.47682
730.89,0.48921
731.22,0.49099
731.55,0.50826
731.89,0.49522
732.22,0.51076
732.55,0.5008
732.88,0.51158
733.21,0.50623
733.55,0.51192
733.88,0.51636
734.21,0.52565
734.54,0.51601
734.88,0.52056
735.21,0.51943
735.54,0.51548
735.87,0.5244
736.2,0.52585
736.54,0.5303
736.87,0.52932
737.2,0.52085
737.53,0.52607
737.86,0.53469
738.19,0.53935
738.53,0.54104
738.86,0.54031
739.19,0.53776
739.52,0.53671
739.85,0.54424
740.18,0.53372
740.51,0.54489
740.85,0.54742
741.18,0.54441
741.51,0.54468
741.84,0.54063
742.17,0.54273
742.5,0.54695
742.83,0.55353
743.16,0.55468
743.49,0.5556
743.82,0.54839
744.16,0.55258
744.49,0.55703
744.82,0.55966
745.15,0.5658
745.48,0.55705
745.81,0.55434
746.14,0.55873
746.47,0.55957
746.8,0.56072
747.13,0.5594
747.46,0.55672
747.79,0.55907
748.12,0.56012
748.45,0.55789
748.78,0.56441
749.11,0.55879
749.44,0.56633
749.77,0.56737
750.1,0.56336
750.43,0.55758
750.76,0.56165
751.09,0.561
751.42,0.56279
751.75,0.56282
752.08,0.56862
752.41,0.56608
752.74,0.56676
753.07,0.56808
753.4,0.56725
753.73,0.56418
754.06,0.57086
754.39,0.57543
754.72,0.56477
755.05,0.56138
755.38,0.57685
755.71,0.57088
756.03,0.55937
756.36,0.57005
756.69,0.56339
757.02,0.56824
757.35,0.56805
757.68,0.57146
758.01,0.57886
758.34,0.57135
758.67,0.57106
758.99,0.57803
759.32,0.57602
759.65,0.56468
759.98,0.58
760.31,0.57181
760.64,0.56047
760.97,0.55047
761.29,0.56406
761.62,0.55633
761.95,0.54835
762.28,0.54996
762.61,0.51927
762.94,0.50445
763.26,0.52287
763.59,0.51538
763.92,0.51453
764.25,0.5339
764.58,0.53455
764.9,0.53737
765.23,0.5511
765.56,0.52609
765.89,0.55347
766.22,0.55841
766.54,0.57637
766.87,0.56915
767.2,0.57097
767.53,0.56841
767.85,0.57569
768.18,0.5798
768.51,0.57249
768.84,0.57592
769.16,0.57115
769.49,0.57691
769.82,0.57549
770.15,0.58062
770.47,0.57623
770.8,0.57493
771.13,0.58898
771.45,0.58638
771.78,0.58175
772.11,0.58182
772.43,0.58045
772.76,0.58223
773.09,0.58557
773.41,0.58656
773.74,0.58513
774.07,0.58508
774.39,0.58123
774.72,0.5823
775.05,0.58217
775.37,0.59056
775.7,0.58309
776.03,0.58529
776.35,0.58558
776.68,0.58405
777.01,0.58543
777.33,0.58658
777.66,0.58989
777.98,0.58094
778.31,0.58665
778.64,0.58403
778.96,0.57967
779.29,0.58588
779.61,0.58458
779.94,0.57829
780.27,0.57996
780.59,0.58059
780.92,0.57874
781.24,0.59134
781.57,0.58963
781.89,0.58497
782.22,0.58979
782.54,0.58044
782.87,0.59038
783.19,0.5914
783.52,0.58068
783.85,0.58129
784.17,0.59071
784.5,0.58514
784.82,0.5826
785.15,0.59011
785.47,0.57079
785.8,0.58189
786.12,0.58789
786.45,0.5891
786.77,0.57897
787.1,0.58347
787.42,0.58697
787.74,0.5838
788.07,0.5824
788.39,0.58807
788.72,0.57959
789.04,0.58194
789.37,0.57638
789.69,0.56987
790.02,0.58062
790.34,0.58004
790.66,0.57469
790.99,0.58056
791.31,0.57095
791.64,0.58841
791.96,0.58546
792.29,0.58213
792.61,0.57933
792.93,0.57468
793.26,0.5892
793.58,0.58955
793.9,0.57913
794.23,0.59211
794.55,0.58979
794.88,0.5815
795.2,0.5722
795.52,0.5937
795.85,0.58315
796.17,0.58552
796.49,0.56582
796.82,0.57561
797.14,0.58158
797.46,0.58282
797.79,0.59094
798.11,0.5936
798.43,0.57106
798.76,0.58143
799.08,0.57527
799.4,0.57869
799.73,0.574
800.05,0.57219
800.37,0.57534
800.69,0.57375
801.02,0.58016
801.34,0.57877
801.66,0.57258
801.98,0.56865
802.31,0.57419
802.63,0.56626
802.95,0.56766
803.27,0.57268
803.6,0.57738
803.92,0.56918
804.24,0.56627
804.56,0.57299
804.89,0.58522
805.21,0.57414
805.53,0.57823
805.85,0.58225
806.17,0.58831
806.5,0.57931
806.82,0.57987
807.14,0.58452
807.46,0.58635
807.78,0.5848
808.11,0.57494
808.43,0.57688
808.75,0.58375
809.07,0.58491
809.39,0.57207
809.71,0.5774
810.03,0.56726
810.36,0.58224
810.68,0.57272
811,0.57487
811.32,0.55587
811.64,0.5552
811.96,0.5589
812.28,0.57087
812.6,0.572
812.93,0.58137
813.25,0.55654
813.57,0.56656
813.89,0.56227
814.21,0.55299
814.53,0.54939
814.85,0.55758
815.17,0.5518
815.49,0.54777
815.81,0.53854
816.13,0.53325
816.45,0.5456
816.77,0.54384
817.09,0.52542
817.41,0.5187
817.73,0.53087
818.06,0.53314
818.38,0.50313
818.7,0.52313
819.02,0.53208
819.34,0.51767
819.66,0.53042
819.98,0.55502
820.3,0.57944
820.62,0.56368
820.94,0.56444
821.26,0.56998
821.57,0.534
821.89,0.55141
822.21,0.52669
822.53,0.56247
822.85,0.56003
823.17,0.54288
823.49,0.56091
823.81,0.55851
824.13,0.56127
824.45,0.5583
824.77,0.56363
825.09,0.56332
825.41,0.57601
825.73,0.57757
826.05,0.54561
826.36,0.58746
826.68,0.55103
827,0.57203
827.32,0.58082
827.64,0.56126
827.96,0.55116
828.28,0.54854
828.6,0.53621
828.92,0.56053
829.23,0.57129
829.55,0.57561
829.87,0.58573
830.19,0.55688
830.51,0.57714
830.83,0.53787
831.14,0.52785
831.46,0.57464
831.78,0.56999
832.1,0.5691
832.42,0.57564
832.74,0.58028
833.05,0.54415
833.37,0.57271
833.69,0.57314
834.01,0.58265
834.32,0.58512
834.64,0.59083
834.96,0.59249
835.28,0.57138
835.6,0.601
835.91,0.61269
836.23,0.59024
836.55,0.60022
836.87,0.59056
837.18,0.59604
837.5,0.59614
837.82,0.59314
838.13,0.59927
838.45,0.59044
838.77,0.60669
839.09,0.60244
839.4,0.62093
839.72,0.58347
840.04,0.60641
840.35,0.59757
840.67,0.59048
840.99,0.58603
841.3,0.59604
841.62,0.5979
841.94,0.59905
842.25,0.60991
842.57,0.61519
842.89,0.62766
843.2,0.60118
843.52,0.61082
843.84,0.62692
844.15,0.59172
844.47,0.60359
844.79,0.60967
845.1,0.6011
845.42,0.61459
845.73,0.62403
846.05,0.6194
846.37,0.61246
846.68,0.60125
847,0.60352
847.31,0.61319
847.63,0.61867
847.94,0.6109
848.26,0.60817
848.58,0.62087
848.89,0.61345
849.21,0.61753
849.52,0.62601
849.84,0.6083
850.15,0.60512
850.47,0.60363
850.78,0.63048
851.1,0.61969
851.41,0.60513
851.73,0.61718
852.04,0.60743
852.36,0.61851
852.67,0.62416
852.99,0.61345
853.3,0.61641
853.62,0.63304
853.93,0.62568
854.25,0.63708
854.56,0.6083
854.88,0.64393
855.19,0.61941
855.51,0.62822
855.82,0.59766
856.14,0.62622
856.45,0.62954
856.77,0.61701
857.08,0.62463
857.39,0.60927
857.71,0.61442
858.02,0.6273
858.34,0.60912
858.65,0.6178
858.96,0.63628
859.28,0.6232
859.59,0.62206
859.91,0.64464
860.22,0.6121
860.53,0.62538
860.85,0.61911
861.16,0.63327
861.47,0.62478
861.79,0.63214
862.1,0.62223
862.42,0.61281
862.73,0.6626
863.04,0.62582
863.36,0.62799
863.67,0.63352
863.98,0.64523
864.3,0.62245
864.61,0.62603
864.92,0.62733
865.23,0.62903
865.55,0.64286
865.86,0.6188
866.17,0.63241
866.49,0.6159
866.8,0.63819
867.11,0.63197
867.42,0.61554
867.74,0.62578
868.05,0.62131
868.36,0.62138
868.67,0.62609
868.99,0.6266
869.3,0.62685
869.61,0.62807
869.92,0.63503
870.24,0.64136
870.55,0.62946
870.86,0.63214
871.17,0.63667
871.49,0.6284
871.8,0.61974
872.11,0.62789
872.42,0.64753
872.73,0.62927
873.04,0.6036
873.36,0.61795
873.67,0.61228
873.98,0.63143
874.29,0.61671
874.6,0.62182
874.91,0.6427
875.23,0.6164
875.54,0.64056
875.85,0.60921
876.16,0.61665
876.47,0.63007
876.78,0.61682
877.09,0.62435
877.4,0.6307
877.72,0.64257
878.03,0.60575
878.34,0.61788
878.65,0.63316
878.96,0.64274
879.27,0.63862
879.58,0.63728
879.89,0.64379
880.2,0.62452
880.51,0.65678
880.82,0.63349
881.13,0.65975
881.45,0.63243
881.76,0.62741
882.07,0.62199
882.38,0.64512
882.69,0.61005
883,0.65286
883.31,0.62431
883.62,0.63075
883.93,0.62531
884.24,0.63023
884.55,0.64571
884.86,0.62514
885.17,0.65
885.48,0.63317
885.79,0.62805
886.1,0.61999
886.41,0.63839
886.72,0.62077
887.03,0.6398
887.33,0.63511
887.64,0.64195
887.95,0.64343
888.26,0.66366
888.57,0.63643
888.88,0.63761
889.19,0.63864
889.5,0.61767
889.81,0.62266
890.12,0.64542
890.43,0.63501
890.74,0.65161
891.05,0.64026
891.35,0.65117
891.66,0.65177
891.97,0.62191
892.28,0.61672
892.59,0.6546
892.9,0.63413
893.21,0.60294
893.51,0.61077
893.82,0.62155
894.13,0.61526
894.44,0.60029
894.75,0.62831
895.06,0.56913
895.36,0.55988
895.67,0.58935
895.98,0.56087
896.29,0.64161
896.6,0.53255
896.91,0.57711
897.21,0.56992
897.52,0.57509
897.83,0.5985
898.14,0.58459
898.44,0.53108
898.75,0.56943
899.06,0.57672
899.37,0.55312
899.68,0.53378
899.98,0.56626
900.29,0.42615
900.6,0.4565
900.9,0.54484
901.21,0.57397
901.52,0.54217
901.83,0.43866
902.13,0.41591
902.44,0.55167
902.75,0.56204
903.05,0.61374
903.36,0.58563
903.67,0.55831
903.98,0.58429
904.28,0.62557
904.59,0.6107
904.9,0.56763
905.2,0.6192
905.51,0.59082
905.82,0.61645
906.12,0.6236
906.43,0.59014
906.73,0.62709
907.04,0.50829
907.35,0.56444
907.65,0.533
907.96,0.52332
908.27,0.45064
908.57,0.59205
908.88,0.54949
909.18,0.58596
909.49,0.6166
909.8,0.61391
910.1,0.44084
910.41,0.51386
910.71,0.55842
911.02,0.44933
911.32,0.47225
911.63,0.57354
911.94,0.69735
912.24,0.51935
912.55,0.46389
912.85,0.4117
913.16,0.46871
913.46,0.40637
913.77,0.33378
914.07,0.39543
914.38,0.41899
914.68,0.59298
914.99,0.50132
915.29,0.58347
915.6,0.50396
915.9,0.2575
916.21,0.55795
916.51,0.55682
916.82,0.27104
917.12,0.41483
917.43,0.53488
917.73,0.57945
918.03,0.40728
918.34,0.49525
918.64,0.47485
918.95,0.49945
919.25,0.591
919.56,0.51434
919.86,0.60216
920.16,0.56348
920.47,0.54834
920.77,0.62947
921.08,0.51342
921.38,0.47605
921.68,0.51852
921.99,0.60497
922.29,0.53441
922.6,0.60515
922.9,0.5476
923.2,0.57711
923.51,0.59306
923.81,0.5636
924.11,0.54177
924.42,0.45413
924.72,0.4882
925.02,0.5031
925.33,0.48692
925.63,0.45201
925.93,0.45744
926.24,0.52192
926.54,0.59783
926.84,0.48263
927.15,0.4716
927.45,0.57637
927.75,0.5
928.05,0.2515
928.36,0.59851
928.66,0.64706
928.96,0.11594
929.27,0.64336
929.57,-0.23967
929.87,-0.58462
930.17,2.55556
930.48,-1.69231
930.78,-0.59783
931.08,0.26667
931.38,-0.88889
931.68,0.41121
931.99,-2.53333
932.29,0.42857
932.59,1.0625
932.89,1.23881
933.19,-8.14286
933.5,6.58333
933.8,0.82258
934.1,0.13462
934.4,0.60345
934.7,1.46296
935.01,0.63492
935.31,3
935.61,-0.10619
935.91,0.2087
936.21,1.11607
936.51,2.71739
936.81,0.97222
937.12,0.89855
937.42,1.90805
937.72,3.35484
938.02,1.17544
938.32,0.94964
938.62,1.42029
938.92,1.91667
939.22,2.52113
939.52,2.36667
939.82,-91
940.13,-0.64286
940.43,0.57258
940.73,0.2087
941.03,1.64646
941.33,-14
941.63,-1.875
941.93,0.78261
942.23,3
942.53,2.175
942.83,1.84706
943.13,0.18667
943.43,0.7957
943.73,1.54054
944.03,0.48872
944.33,13.25
944.63,1.92105
944.93,0.63043
945.23,10.9
945.53,1.11168
945.83,1.31092
946.13,0.75
946.43,1.73469
946.73,2.43478
947.03,-2.88462
947.33,2.08547
947.63,4.625
947.93,1.13714
948.23,-51.33333
948.53,0.95506
948.83,0.36145
949.12,0.90625
949.42,3.68571
949.72,1.90244
950.02,17.41667
950.32,0.94505
950.62,7
950.92,2.71429
951.22,-1.36923
951.52,3.85714
951.82,7.07143
952.11,-3.375
952.41,1.42105
952.71,56.25
953.01,0.7375
953.31,1.40449
953.61,1.75789
953.91,1.01471
954.2,1.71429
954.5,8.88889
954.8,1.97143
955.1,2.26027
955.4,1.12605
955.69,1.29197
955.99,11.53846
956.29,1.61417
956.59,-3.14286
956.89,2.32203
957.18,1.58108
957.48,2.2875
957.78,-4.15625
958.08,-8
958.37,2.33333
958.67,1
958.97,2.95833
959.27,4.22222
959.56,1.90476
959.86,-4.14286
960.16,-0.66038
960.46,-0.78947
960.75,2.78571
961.05,2.06383
961.35,1.59794
961.65,0.6875
961.94,4.63158
962.24,17.16667
962.54,1.73973
962.83,-0.71429
963.13,-12
963.43,-0.96203
963.72,-0.39516
964.02,1.32609
964.32,-1.09677
964.61,6.06667
964.91,4.35714
965.21,0.90244
965.5,-1.08475
965.8,-2.58824
966.09,-0.26882
966.39,0.37288
966.69,-2.53659
966.98,2.9661
967.28,-1.83673
967.57,0.26667
967.87,-0.73469
968.17,0.73892
968.46,0.1466
968.76,0.64045
969.05,0.62838
969.35,0.4686
969.65,0.68992
969.94,0.25767
970.24,0.58039
970.53,0.74157
970.83,0.36594
971.12,0.08661
971.42,0.31801
971.71,0.41697
972.01,0.4
972.3,0.6761
972.6,-0.1588
972.89,0.30376
973.19,0.49677
973.48,-0.86567
973.78,0.13636
974.07,0.10417
974.37,-0.09091
974.66,-0.12255
974.96,0.13103
975.25,0.32308
975.55,21.5
975.84,-5.16667
976.14,0.1465
976.43,0.06608
976.72,0.28049
977.02,0.39252
977.31,0.27667
977.61,-0.22826
977.9,0.54422
978.2,0.5266
978.49,-0.47407
978.78,0.07609
979.08,-0.03448
979.37,0.62069
979.67,-0.33333
979.96,0.02564
980.25,0.15698
980.55,0.3287
980.84,0.82353
981.13,0.48691
981.43,0.23499
981.72,0.6692
982.01,0.4438
982.31,-0.31136
982.6,0.7319
982.89,0.64038
983.19,0.27621
983.48,0.53543
983.77,0.56568
984.07,0.23624
984.36,0.46122
984.65,0.59836
984.95,0.65871
985.24,0.77419
985.53,0.54248
985.82,0.36437
986.12,0.6478
986.41,0.58608
986.7,0.58405
986.99,0.73348
987.29,0.43726
987.58,0.56346
987.87,0.54803
988.16,0.55687
988.46,0.51139
988.75,0.65149
989.04,0.35054
989.33,0.75221
989.62,0.50416
989.92,0.7106
990.21,0.54688
990.5,0.42079
990.79,0.68876
991.08,0.64881
991.38,0.61355
991.67,0.30968
991.96,0.6391
992.25,0.4922
992.54,0.68873
992.83,0.40385
993.12,0.62634
993.42,0.42642
993.71,0.54579
994,0.72851
994.29,0.57857
994.58,0.77913
994.87,0.78657
995.16,0.44914
995.45,0.47281
995.74,0.34943
996.04,0.65909
996.33,0.84279
996.62,0.59717
996.91,0.59916
997.2,0.55729
997.49,0.35313
997.78,0.5123
998.07,0.56287
998.36,0.48753
998.65,0.46263
998.94,0.57563
999.23,0.72037
999.52,0.60741
999.81,0.33403
1000.1,0.25837
1000.39,0.36413
1000.68,0.60211
1000.97,0.7327
1001.26,0.48238
1001.55,0.40374
1001.84,0.3843
1002.13,0.5838
1002.42,0.57662
1002.71,0.60554
1003,0.35161
1003.29,0.57477
1003.58,0.70149
1003.87,0.72753
1004.16,0.64051
1004.45,0.46183
1004.74,0.47425
1005.03,0.41379
1005.31,0.28936
1005.6,0.61298
1005.89,0.30887
1006.18,0.40625
1006.47,0.2962
1006.76,0.28571
1007.05,-0.09167
1007.34,0.8
1007.63,0.63404
1007.91,0.39726
1008.2,-0.16957
1008.49,0.53333
1008.78,0.54
1009.07,0.60286
1009.36,0.45122
1009.65,0.3165
1009.93,0.55725
1010.22,0.3399
1010.51,0.21429
1010.8,0.70588
1011.09,0.45306
1011.37,1.04762
1011.66,0.83871
1011.95,0.56
1012.24,0.58633
1012.53,0.58863
1012.81,0.68103
1013.1,0.72093
1013.39,0.60897
1013.68,1.04895
1013.96,0.50714
1014.25,0.52889
1014.54,0.37766
1014.83,0.4058
1015.11,0.52475
1015.4,-0.3237
1015.69,0.78
1015.98,0.48087
1016.26,0.32576
1016.55,0.24878
1016.84,-1.43056
1017.12,0.0177
1017.41,0.11792
1017.7,0.82456
1017.98,0.21239
1018.27,0.86188
1018.56,0.56122
1018.84,1.12069
1019.13,0.29534
1019.42,0.89385
1019.7,0.6943
1019.99,0.78182
1020.28,0.2479
1020.56,-1.72881
1020.85,0.43299
1021.13,0.04054
1021.42,0.87778
1021.71,0.41453
1021.99,0.35652
1022.28,-0.3883
1022.56,0.95
1022.85,0.17769
1023.14,0.4186
1023.42,1.35965
1023.71,0.64667
1023.99,0.52153
1024.28,0.41206
